         T[K]      VP[Mpa]     LDN[gcc] Hvap[kJ/mol]
       201.94     0.000232     0.709004    31.467712
       207.21     0.000374     0.704606    31.226556
       212.49     0.000586     0.700173    30.982411
       217.76     0.000894     0.695702    30.735177
       223.03     0.001333     0.691192    30.484750
       228.31     0.001946     0.686641    30.231018
       233.58     0.002783     0.682050    29.973864
       238.85     0.003907     0.677414    29.713165
       244.12     0.005391     0.672735    29.448788
       249.40     0.007319     0.668008    29.180594
       254.67     0.009791     0.663233    28.908435
       259.94     0.012915     0.658408    28.632152
       265.21     0.016816     0.653531    28.351577
       270.49     0.021632     0.648599    28.066530
       275.76     0.027513     0.643610    27.776818
       281.03     0.034623     0.638562    27.482234
       286.31     0.043140     0.633452    27.182559
       291.58     0.053253     0.628277    26.877552
       296.85     0.065164     0.623033    26.566957
       302.12     0.079089     0.617718    26.250497
       307.40     0.095251     0.612328    25.927870
       312.67     0.113889     0.606858    25.598750
       317.94     0.135247     0.601305    25.262782
       323.21     0.159584     0.595663    24.919577
       328.49     0.187166     0.589928    24.568711
       333.76     0.218267     0.584094    24.209717
       339.03     0.253174     0.578154    23.842078
       344.31     0.292179     0.572101    23.465227
       349.58     0.335584     0.565928    23.078528
       354.85     0.383702     0.559626    22.681275
       360.12     0.436854     0.553185    22.272674
       365.40     0.495368     0.546595    21.851832
       370.67     0.559587     0.539842    21.417732
       375.94     0.629860     0.532913    20.969216
       381.21     0.706549     0.525791    20.504953
       386.49     0.790030     0.518457    20.023399
       391.76     0.880690     0.510888    19.522749
       397.03     0.978929     0.503060    19.000871
       402.31     1.085166     0.494940    18.455222
       407.58     1.199834     0.486489    17.882720
       412.85     1.323386     0.477662    17.279583
       418.12     1.456293     0.468399    16.641081
       423.40     1.599050     0.458626    15.961174
       428.67     1.752174     0.448243    15.231951
       433.94     1.916208     0.437117    14.442714
       439.22     2.091723     0.425059    13.578415
       444.49     2.279320     0.411787    12.616738
       449.76     2.479632     0.396849    11.522115
       455.03     2.693330     0.379438    10.231501
       460.31     2.921118     0.357828     8.611883
