         T[K]      VP[Mpa]     LDN[gcc] Hvap[kJ/mol]
       197.67     0.000293     0.709360    30.176841
       202.84     0.000464     0.704979    29.942638
       208.01     0.000717     0.700563    29.705556
       213.19     0.001080     0.696110    29.465499
       218.36     0.001591     0.691619    29.222366
       223.54     0.002295     0.687089    28.976050
       228.71     0.003249     0.682518    28.726439
       233.88     0.004517     0.677905    28.473415
       239.06     0.006177     0.673247    28.216849
       244.23     0.008317     0.668545    27.956610
       249.41     0.011040     0.663795    27.692553
       254.58     0.014459     0.658996    27.424528
       259.75     0.018701     0.654145    27.152372
       264.93     0.023908     0.649242    26.875913
       270.10     0.030232     0.644282    26.594966
       275.28     0.037840     0.639265    26.309333
       280.45     0.046911     0.634186    26.018802
       285.62     0.057636     0.629045    25.723145
       290.80     0.070218     0.623836    25.422114
       295.97     0.084872     0.618557    25.115444
       301.15     0.101821     0.613205    24.802846
       306.32     0.121302     0.607775    24.484008
       311.49     0.143560     0.602263    24.158589
       316.67     0.168847     0.596665    23.826217
       321.84     0.197428     0.590975    23.486485
       327.02     0.229573     0.585188    23.138945
       332.19     0.265562     0.579298    22.783106
       337.36     0.305682     0.573297    22.418420
       342.54     0.350228     0.567179    22.044281
       347.71     0.399503     0.560934    21.660013
       352.89     0.453818     0.554554    21.264857
       358.06     0.513492     0.548027    20.857957
       363.23     0.578851     0.541341    20.438342
       368.41     0.650232     0.534483    20.004905
       373.58     0.727980     0.527436    19.556372
       378.76     0.812450     0.520181    19.091269
       383.93     0.904009     0.512698    18.607870
       389.10     1.003033     0.504960    18.104141
       394.28     1.109913     0.496937    17.577651
       399.45     1.225053     0.488591    17.025461
       404.63     1.348872     0.479877    16.443961
       409.80     1.481802     0.470737    15.828640
       414.97     1.624298     0.461098    15.173739
       420.15     1.776829     0.450864    14.471719
       425.32     1.939887     0.439904    13.712392
       430.50     2.113986     0.428034    12.881433
       435.67     2.299664     0.414980    11.957612
       440.84     2.497486     0.400301    10.907116
       446.02     2.708043     0.383212     9.670065
       451.19     2.931959     0.362036     8.120251
